DU=D:/aiandre, USER=Alice, NAME=cdBBI_09_04_15_Daphne_1.1, EXPNO=12, PROCNO=1
F1=8.013ppm, F2=6.147ppm, MI=0.00cm, MAXI=10000.00cm, PC=0.500
     #     ADDRESS            FREQUENCY         INTENSITY
                           [Hz]        [PPM]
     1     22437.1     4004.974       8.0074         0.01
     2     22619.0     3977.209       7.9519         0.06
     3     22681.7     3967.646       7.9328         0.06
     4     22827.5     3945.408       7.8883         2.09
     5     22889.5     3935.947       7.8694         2.16
     6     22955.3     3925.901       7.8493         0.07
     7     23017.1     3916.470       7.8304         0.06
     8     23278.3     3876.608       7.7507         0.09
     9     23394.1     3858.950       7.7154         0.01
    10     23436.1     3852.534       7.7026         0.01
    11     23580.8     3830.458       7.6585         0.04
    12     23635.6     3822.092       7.6417         0.05
    13     23871.2     3786.153       7.5699         0.01
    14     23928.6     3777.386       7.5524         0.01
    15     24045.0     3759.633       7.5169         0.01
    16     24203.9     3735.386       7.4684         0.01
    17     24260.5     3726.742       7.4511         0.02
    18     24345.8     3713.729       7.4251         0.05
    19     24455.8     3696.946       7.3915         0.02
    20     24626.3     3670.932       7.3395         0.02
    21     24717.0     3657.088       7.3118         0.10
    22     24733.8     3654.517       7.3067         1.62
    23     24772.4     3648.634       7.2949         0.15
    24     24790.3     3645.895       7.2895         1.78
    25     24942.3     3622.707       7.2431         0.96
    26     24998.9     3614.068       7.2258         1.26
    27     25175.6     3587.108       7.1719         0.01
    28     25273.0     3572.251       7.1422         0.02
    29     25418.4     3550.066       7.0979         1.16
    30     25475.1     3541.417       7.0806         0.95
    31     25700.4     3507.034       7.0118         0.06
    32     25733.3     3502.019       7.0018         0.06
    33     25755.4     3498.632       6.9950         0.07
    34     25842.3     3485.375       6.9685         0.02
    35     25936.6     3470.993       6.9398         0.03
    36     25990.3     3462.795       6.9234         0.04
    37     26052.0     3453.389       6.9046         0.11
    38     26068.6     3450.845       6.8995         1.92
    39     26125.1     3442.235       6.8823         1.79
    40     26266.5     3420.647       6.8391         0.08
    41     26322.9     3412.049       6.8219         0.08
    42     26415.9     3397.858       6.7935         0.03
    43     26503.1     3384.554       6.7669         0.11
    44     26608.7     3368.432       6.7347         0.01
    45     26662.3     3360.251       6.7184         0.02
    46     26744.3     3347.752       6.6934         0.04
    47     26795.1     3339.994       6.6779         0.01
    48     26977.5     3312.168       6.6222         0.05
    49     27117.3     3290.832       6.5796         0.02
    50     27222.9     3274.723       6.5474         0.02
    51     27297.9     3263.267       6.5244         0.03
    52     27311.9     3261.140       6.5202         0.04
    53     27492.4     3233.595       6.4651         0.03
    54     27697.1     3202.363       6.4027         0.01
    55     27758.3     3193.018       6.3840         0.01
    56     27843.9     3179.963       6.3579         0.08
    57     27906.6     3170.388       6.3387         0.08
    58     27943.3     3164.789       6.3276         0.08
    59     27960.0     3162.244       6.3225         1.17
    60     28005.6     3155.291       6.3086         0.08
    61     28022.2     3152.746       6.3035         1.15
    62     28242.5     3119.139       6.2363         0.10
    63     28258.9     3116.639       6.2313         1.81
    64     28303.7     3109.794       6.2176         0.12
    65     28320.8     3107.183       6.2124         1.79
    66     28363.6     3100.667       6.1993         0.09
    67     28411.5     3093.350       6.1847         0.04
    68     28425.9     3091.158       6.1803         0.07
    69     28475.6     3083.566       6.1652         0.02
